2-THETA;INTENSITY
23.08;13.03
29.31;100.00
31.12;1.21
36.12;15.26
39.48;16.65
43.30;15.50
47.15;18.97
47.17;7.55
48.40;22.87
56.80;1.91
57.58;1.93
57.62;10.16
60.80;3.16
60.82;6.80
61.05;1.81
63.15;1.04
64.89;3.11
64.95;6.20
69.88;2.56
72.80;3.61
76.58;2.71
81.27;2.83
84.07;1.31