2-THETA;INTENSITY 
24.35;27.04
33.47;100.00
35.91;72.25
39.71;1.99
41.21;18.45
43.86;2.18
49.90;36.00
54.60;45.03
57.93;2.46
58.23;8.01
62.99;29.70
64.54;29.90
70.33;3.02
72.79;10.50
73.08;1.84
76.12;2.24
78.51;1.13
78.51;1.13
81.57;4.18
83.92;5.64
85.75;2.91
89.47;2.72