2-THETA;INTENSITY
17.85;11.71
21.29;100.00
26.41;10.92
33.33;40.30
34.77;23.91
35.58;4.75
36.15;14.77
36.75;65.37
39.19;3.30
40.08;8.46
40.27;2.65
41.30;14.53
43.37;1.04
45.17;3.59
47.39;5.66
50.76;10.81
51.63;2.52
53.38;33.05
54.37;9.59
55.47;3.15
57.57;6.83
59.17;22.80
61.44;9.87
61.69;4.57
63.12;3.10
63.53;4.41
64.13;10.14
65.81;5.96
67.32;4.34
68.05;1.07
68.69;4.36
69.25;5.33
69.43;1.98
70.01;1.91
71.62;1.64
71.72;6.70
73.41;2.90
75.22;2.10
75.34;1.09
76.74;2.31
80.16;3.25
84.29;2.35
84.94;2.86
86.41;1.07
86.52;1.07
86.52;3.66
87.42;1.31
89.71;1.28